Measurement file: 	20240823_SiO2NPs_2024_ILUM (1)
Record no: 	 58
Sample name: 	SiO2NPs_7ml_agua 3


Times (us)	ACF Data
 .5	 .920640289783478
 1	 .927721738815308
 1.5	 .928055226802826
 2	 .924554169178009
 2.5	 .921046793460846
 3	 .922103881835938
 3.5	 .921375215053558
 4	 .917212188243866
 4.5	 .915666162967682
 5.5	 .914750635623932
 6.5	 .911394894123077
 7.5	 .909711062908173
 8.5	 .906514525413513
 9.5	 .903193414211273
 10.5	 .899123549461365
 11.5	 .896760106086731
 12.5	 .894467413425446
 14.5	 .888922929763794
 16.5	 .884198904037476
 18.5	 .875849902629852
 20.5	 .869895696640015
 22.5	 .864969730377197
 24.5	 .860295414924622
 26.5	 .855197012424469
 28.5	 .849570155143738
 32.5	 .83694589138031
 36.5	 .826522886753082
 40.5	 .815685212612152
 44.5	 .805407285690308
 48.5	 .793955147266388
 52.5	 .785052537918091
 56.5	 .774224162101746
 60.5	 .764940857887268
 68.5	 .744973540306091
 76.5	 .726154923439026
 84.5	 .708222389221191
 92.5	 .689186573028564
 100.5	 .671652853488922
 108.5	 .65529876947403
 116.5	 .637272775173187
 124.5	 .621441185474396
 140.5	 .589355170726776
 156.5	 .559844851493835
 172.5	 .531362473964691
 188.5	 .504174113273621
 204.5	 .478699445724487
 220.5	 .454445838928223
 236.5	 .431495398283005
 252.5	 .40996465086937
 284.5	 .369474649429321
 316.5	 .332402229309082
 348.5	 .299777895212173
 380.5	 .269748270511627
 412.5	 .24267503619194
 444.5	 .218346506357193
 476.5	 .197088539600372
 508.5	 .17807936668396
 572.5	 .144151046872139
 636.5	 .117548681795597
 700.5	 9.53818559646606E-02
 764.5	 .078033834695816
 828.5	 6.34512081742287E-02
 892.5	 5.16860149800777E-02
 956.5	 4.17306758463383E-02
 1020.5	 .033311951905489
 1148.5	 1.99519079178572E-02
 1276.5	 1.08946096152067E-02
 1404.5	 5.06290700286627E-03
 1532.5	 7.79689173214138E-04
 1660.5	 0
 1788.5	 0
 1916.5	 0
 2044.5	 0
 2300.5	 0
 2556.5	 0
 2812.5	 0
 3068.5	 0
 3324.5	 0
 3580.5	 0
 3836.5	 0
 4092.5	 0
 4604.5	 0
 5116.5	 0
 5628.5	 0
 6140.5	 1.54792178364005E-05
 6652.5	 3.14904469996691E-03
 7164.5	 3.09462076984346E-03
 7676.5	 4.84832911752164E-04
 8188.5	 1.42471794970334E-03
 9212.5	 4.46202605962753E-03
 10236.5	 0
 11260.5	 0
 12284.5	 0
 13308.5	 0
 14332.5	 0
 15356.5	 1.08323490712792E-03
 16380.5	 3.34778887918219E-05
 18428.5	 0
 20476.5	 0
 22524.5	 4.22096392139792E-03
 24572.5	 0
 26620.5	 3.22000146843493E-03
 28668.5	 0
 30716.5	 0
 32764.5	 0
 36860.5	 0
 40956.5	 3.72473092284054E-04
 45052.5	 0
 49148.5	 9.06510977074504E-04
 53244.5	 0
 57340.5	 0
 61436.5	 1.58661708701402E-03
 65532.5	 0
 73724.5	 5.34216698724777E-04
 81916.5	 2.07793898880482E-03
 90108.5	 0
 98300.5	 0
 106492.5	 6.91989262122661E-04
 114684.5	 1.78345676977187E-03
 122876.5	 4.02934092562646E-04
 131068.5	 1.40670372275054E-05
 147452.5	 0
 163836.5	 0
 180220.5	 0
 196604.5	 8.60455795191228E-04
 212988.5	 2.96827172860503E-04
 229372.5	 9.79365082457662E-04
 245756.5	 0
 262140.5	 0
 294908.5	 7.73149251472205E-04
 327676.5	 0
 360444.5	 3.40869271894917E-04
 393212.5	 7.25534511730075E-04
 425980.5	 7.4974459130317E-04
 458748.5	 0
 491516.5	 9.55456285737455E-04
 524284.5	 4.87932178657502E-04
 589820.5	 0
 655356.5	 5.13075501658022E-04
 720892.5	 0
 786428.5	 0
 851964.5	 7.45307479519397E-04
 917500.5	 0
 983036.5	 9.31458853301592E-05
 1048572.5	 6.08923612162471E-04
 1179644.5	 4.79367910884321E-04
 1310716.5	 6.80829863995314E-04
 1441788.5	 0
 1572860.5	 0
 1703932.5	 5.342360236682E-04
 1835004.5	 3.0326092382893E-04
 1966076.5	 0
 2097148.5	 7.42211821489036E-04
 2359292.5	 5.10362617205828E-04
 2621436.5	 1.8286012345925E-03
 2883580.5	 1.19102443568408E-03
 3145724.5	 1.37884507421404E-03
 3407868.5	 8.85395042132586E-04
 3670012.5	 4.75985230877995E-04
 3932156.5	 5.11371239554137E-04
 4194300.5	 0
 4718588.5	 0
 5242876.5	 0
 5767164.5	 0
 6291452.5	 8.69565235916525E-04
 6815740.5	 1.62807526066899E-04
 7340028.5	 1.05506542604417E-03
 7864316.5	 8.70351563207805E-04
 8388604.5	 0
 9437180	 0
 10485756	 0
 11534332	 0
 12582908	 0
 13631484	 0
 14680060	 0
 15728636	 0
 16777212	 0
 18874364	 0
 20971516	 0
 23068668	 0
 25165820	 0
 27262972	 0
 29360124	 0
 31457276	 0
 33554428	 0
 37748732	 0
 41943036	 0
 46137340	 0
 50331644	 0
 54525948	 0
 58720252	 0
 62914556	 0
