Measurement file: 	20240823_SiO2NPs_2024_ILUM (1)
Record no: 	 72
Sample name: 	SiO2NPs_6ml_agua 5


Times (us)	ACF Data
 .5	 .861624121665955
 1	 .870651721954346
 1.5	 .868413805961609
 2	 .866413712501526
 2.5	 .864166617393494
 3	 .861002683639526
 3.5	 .860078930854797
 4	 .858361899852753
 4.5	 .856851816177368
 5.5	 .851911664009094
 6.5	 .848156690597534
 7.5	 .844332039356232
 8.5	 .840196549892426
 9.5	 .836146175861359
 10.5	 .832006216049194
 11.5	 .82854688167572
 12.5	 .823954284191132
 14.5	 .816253542900085
 16.5	 .808469772338867
 18.5	 .801185190677643
 20.5	 .793511748313904
 22.5	 .786042869091034
 24.5	 .778545558452606
 26.5	 .771083652973175
 28.5	 .764019548892975
 32.5	 .748989224433899
 36.5	 .735144674777985
 40.5	 .721250295639038
 44.5	 .708018779754639
 48.5	 .694365441799164
 52.5	 .68114048242569
 56.5	 .668276131153107
 60.5	 .656314373016357
 68.5	 .63229501247406
 76.5	 .608860552310944
 84.5	 .586417138576508
 92.5	 .564965724945068
 100.5	 .544224917888641
 108.5	 .523981750011444
 116.5	 .505178868770599
 124.5	 .486620932817459
 140.5	 .451861411333084
 156.5	 .419289708137512
 172.5	 .389357566833496
 188.5	 .361821085214615
 204.5	 .335940927267075
 220.5	 .311740577220917
 236.5	 .289350539445877
 252.5	 .269048690795898
 284.5	 .232707664370537
 316.5	 .201251417398453
 348.5	 .174538686871529
 380.5	 .151348665356636
 412.5	 .131533712148666
 444.5	 .11438063532114
 476.5	 9.95240435004234E-02
 508.5	 8.73390436172485E-02
 572.5	 6.64111003279686E-02
 636.5	 .050872977823019
 700.5	 3.98374535143375E-02
 764.5	 3.13433632254601E-02
 828.5	 2.52864845097065E-02
 892.5	 2.07789167761803E-02
 956.5	 1.69101376086473E-02
 1020.5	 1.42842754721642E-02
 1148.5	 9.9977245554328E-03
 1276.5	 7.03516928479075E-03
 1404.5	 4.88487258553505E-03
 1532.5	 3.94985917955637E-03
 1660.5	 3.02859512157738E-03
 1788.5	 2.99060507677495E-03
 1916.5	 1.92344572860748E-03
 2044.5	 2.70973687293008E-04
 2300.5	 0
 2556.5	 0
 2812.5	 0
 3068.5	 0
 3324.5	 0
 3580.5	 0
 3836.5	 0
 4092.5	 0
 4604.5	 0
 5116.5	 0
 5628.5	 0
 6140.5	 0
 6652.5	 2.14335686905542E-05
 7164.5	 3.29597806558013E-03
 7676.5	 1.65123457554728E-03
 8188.5	 0
 9212.5	 0
 10236.5	 0
 11260.5	 2.73132836446166E-03
 12284.5	 1.08961295336485E-03
 13308.5	 6.82363868691027E-04
 14332.5	 0
 15356.5	 1.44247384741902E-03
 16380.5	 4.41284093540162E-04
 18428.5	 0
 20476.5	 0
 22524.5	 2.19226186163723E-03
 24572.5	 0
 26620.5	 0
 28668.5	 6.20591454207897E-04
 30716.5	 1.21198291890323E-03
 32764.5	 0
 36860.5	 2.03036144375801E-03
 40956.5	 0
 45052.5	 4.53172746347263E-04
 49148.5	 6.04938599281013E-04
 53244.5	 0
 57340.5	 8.70239979121834E-04
 61436.5	 0
 65532.5	 1.02676189271733E-04
 73724.5	 0
 81916.5	 1.30285602062941E-03
 90108.5	 0
 98300.5	 4.04384161811322E-04
 106492.5	 2.24569503188832E-05
 114684.5	 0
 122876.5	 4.08884716307512E-06
 131068.5	 2.6365093071945E-04
 147452.5	 0
 163836.5	 0
 180220.5	 6.95012568030506E-04
 196604.5	 1.37281051138416E-04
 212988.5	 0
 229372.5	 0
 245756.5	 0
 262140.5	 0
 294908.5	 7.35993613488972E-04
 327676.5	 0
 360444.5	 0
 393212.5	 6.8130629369989E-04
 425980.5	 8.44997703097761E-05
 458748.5	 2.02421841095202E-04
 491516.5	 0
 524284.5	 4.39561154053081E-05
 589820.5	 5.03157789353281E-04
 655356.5	 0
 720892.5	 4.14151554650743E-06
 786428.5	 3.84775717975572E-04
 851964.5	 5.43641217518598E-05
 917500.5	 0
 983036.5	 4.51389874797314E-04
 1048572.5	 5.36345141881611E-05
 1179644.5	 4.23034944105893E-04
 1310716.5	 0
 1441788.5	 4.79711656225845E-04
 1572860.5	 4.6099498285912E-04
 1703932.5	 2.11685299291275E-04
 1835004.5	 0
 1966076.5	 0
 2097148.5	 4.45139274233952E-04
 2359292.5	 5.43186150025576E-04
 2621436.5	 9.79078933596611E-04
 2883580.5	 5.9406878426671E-04
 3145724.5	 6.96631497703493E-04
 3407868.5	 7.58296344429255E-04
 3670012.5	 1.40927359461784E-03
 3932156.5	 1.4849656727165E-03
 4194300.5	 0
 4718588.5	 0
 5242876.5	 0
 5767164.5	 0
 6291452.5	 0
 6815740.5	 0
 7340028.5	 0
 7864316.5	 0
 8388604.5	 0
 9437180	 2.08707842830336E-05
 10485756	 3.89914086554199E-04
 11534332	 0
 12582908	 8.2582444883883E-04
 13631484	 4.73297870485112E-04
 14680060	 0
 15728636	 7.40590738132596E-04
 16777212	 0
 18874364	 0
 20971516	 0
 23068668	 0
 25165820	 0
 27262972	 0
 29360124	 0
 31457276	 0
 33554428	 0
 37748732	 0
 41943036	 0
 46137340	 0
 50331644	 0
 54525948	 0
 58720252	 0
 62914556	 0
