Measurement file: 	20240823_SiO2NPs_2024_ILUM (1)
Record no: 	 3
Sample name: 	SiO2NPs_5mL_EtOH


Times (us)	ACF Data
 .5	 .875277638435364
 1	 .883018672466278
 1.5	 .879045486450195
 2	 .874823093414307
 2.5	 .873374700546265
 3	 .869136154651642
 3.5	 .865625262260437
 4	 .86377227306366
 4.5	 .85975444316864
 5.5	 .854606211185455
 6.5	 .848223209381104
 7.5	 .841041147708893
 8.5	 .834770619869232
 9.5	 .829976975917816
 10.5	 .823527872562408
 11.5	 .81784850358963
 12.5	 .811684131622314
 14.5	 .799794435501099
 16.5	 .788764178752899
 18.5	 .77725887298584
 20.5	 .766304731369019
 22.5	 .755365133285522
 24.5	 .745071768760681
 26.5	 .734076499938965
 28.5	 .723757922649384
 32.5	 .703456461429596
 36.5	 .683582127094269
 40.5	 .663437366485596
 44.5	 .644888341426849
 48.5	 .626530706882477
 52.5	 .608901381492615
 56.5	 .591878056526184
 60.5	 .575124859809875
 68.5	 .543078064918518
 76.5	 .513149440288544
 84.5	 .484464377164841
 92.5	 .457618087530136
 100.5	 .432604491710663
 108.5	 .408664911985397
 116.5	 .386182337999344
 124.5	 .365297973155975
 140.5	 .326684266328812
 156.5	 .292271465063095
 172.5	 .261350721120834
 188.5	 .233693480491638
 204.5	 .209075272083282
 220.5	 .186949983239174
 236.5	 .166987463831902
 252.5	 .149879351258278
 284.5	 .120613783597946
 316.5	 9.71300378441811E-02
 348.5	 7.86181017756462E-02
 380.5	 6.35675117373466E-02
 412.5	 5.19269555807114E-02
 444.5	 4.22622561454773E-02
 476.5	 3.49962785840034E-02
 508.5	 2.97412853688002E-02
 572.5	 2.13522333651781E-02
 636.5	 1.55263543128967E-02
 700.5	 1.09632508829236E-02
 764.5	 6.95390393957496E-03
 828.5	 4.25519188866019E-03
 892.5	 2.55134957842529E-03
 956.5	 1.45101500675082E-03
 1020.5	 1.6137819038704E-03
 1148.5	 0
 1276.5	 0
 1404.5	 0
 1532.5	 0
 1660.5	 0
 1788.5	 0
 1916.5	 0
 2044.5	 0
 2300.5	 7.37955153454095E-04
 2556.5	 1.12595524115022E-04
 2812.5	 0
 3068.5	 0
 3324.5	 0
 3580.5	 0
 3836.5	 0
 4092.5	 0
 4604.5	 0
 5116.5	 0
 5628.5	 1.45735230762511E-03
 6140.5	 4.42596152424812E-03
 6652.5	 3.36151593364775E-03
 7164.5	 6.82753976434469E-04
 7676.5	 0
 8188.5	 5.45355083886534E-04
 9212.5	 4.81259543448687E-03
 10236.5	 1.80312187876552E-03
 11260.5	 1.22376438230276E-03
 12284.5	 4.96259817737155E-05
 13308.5	 6.84369006194174E-05
 14332.5	 0
 15356.5	 2.3542414419353E-03
 16380.5	 2.29526124894619E-03
 18428.5	 2.9600749257952E-03
 20476.5	 1.69242802076042E-03
 22524.5	 1.64362846408039E-03
 24572.5	 7.86792079452425E-04
 26620.5	 1.30531121976674E-03
 28668.5	 1.2117528822273E-03
 30716.5	 1.61826866678894E-03
 32764.5	 1.02689932100475E-03
 36860.5	 7.78478133725002E-05
 40956.5	 1.52855250053108E-03
 45052.5	 1.06310553383082E-03
 49148.5	 1.71083747409284E-03
 53244.5	 1.50865211617202E-03
 57340.5	 6.12653791904449E-04
 61436.5	 0
 65532.5	 7.88220087997615E-04
 73724.5	 1.43476272933185E-03
 81916.5	 1.54209812171757E-03
 90108.5	 1.48607883602381E-03
 98300.5	 1.34887674357742E-03
 106492.5	 1.00122694857419E-03
 114684.5	 1.18563207797706E-03
 122876.5	 1.33817701134831E-03
 131068.5	 9.67205036431551E-04
 147452.5	 3.23012558510527E-04
 163836.5	 1.08892761636525E-03
 180220.5	 4.75247245049104E-04
 196604.5	 5.41815650649369E-04
 212988.5	 3.8597610546276E-04
 229372.5	 0
 245756.5	 8.59060732182115E-04
 262140.5	 8.95921257324517E-04
 294908.5	 3.29069560393691E-04
 327676.5	 2.47068499447778E-04
 360444.5	 0
 393212.5	 0
 425980.5	 0
 458748.5	 0
 491516.5	 1.20163967949338E-04
 524284.5	 1.14344838948455E-04
 589820.5	 0
 655356.5	 1.14996510092169E-05
 720892.5	 0
 786428.5	 0
 851964.5	 2.15936175663956E-04
 917500.5	 0
 983036.5	 0
 1048572.5	 0
 1179644.5	 0
 1310716.5	 6.63202197756618E-04
 1441788.5	 6.51797046884894E-04
 1572860.5	 3.33172589307651E-04
 1703932.5	 2.01002563699149E-04
 1835004.5	 3.88961143471533E-06
 1966076.5	 4.88489458803087E-04
 2097148.5	 7.20612006261945E-05
 2359292.5	 4.88615536596626E-04
 2621436.5	 1.59140472533181E-04
 2883580.5	 3.30376497004181E-04
 3145724.5	 0
 3407868.5	 4.22138400608674E-04
 3670012.5	 0
 3932156.5	 4.07637387979776E-04
 4194300.5	 1.94158696103841E-04
 4718588.5	 0
 5242876.5	 2.71922501269728E-04
 5767164.5	 0
 6291452.5	 6.74780865665525E-04
 6815740.5	 0
 7340028.5	 8.13487102277577E-04
 7864316.5	 2.89910240098834E-04
 8388604.5	 0
 9437180	 3.06651520077139E-04
 10485756	 0
 11534332	 1.94817082956433E-04
 12582908	 0
 13631484	 0
 14680060	 0
 15728636	 0
 16777212	 0
 18874364	 0
 20971516	 0
 23068668	 0
 25165820	 0
 27262972	 0
 29360124	 0
 31457276	 0
 33554428	 0
 37748732	 0
 41943036	 0
 46137340	 0
 50331644	 0
 54525948	 0
 58720252	 0
 62914556	 0
